Winding Currents under Load 
Air-Gap Position (elec. degrees)
Current (A)
0	3.00051
1	3.26643
2	3.5373
3	3.81173
4	4.08825
5	4.36508
6	4.64024
7	4.91166
8	5.1774
9	5.43584
10	5.68587
11	5.9269
12	6.15862
13	6.38129
14	6.595
15	6.79969
16	6.99521
17	7.18118
18	7.3579
19	7.52595
20	7.68642
21	7.84088
22	7.99121
23	8.13936
24	8.28718
25	8.43628
26	8.58794
27	8.74314
28	8.90254
29	9.06672
30	9.23536
31	9.40824
32	9.58484
33	9.76436
34	9.94575
35	10.1281
36	10.3095
37	10.4885
38	10.6634
39	10.8327
40	10.9957
41	11.1521
42	11.3016
43	11.4441
44	11.5795
45	11.7078
46	11.8286
47	11.9419
48	12.0475
49	12.1458
50	12.2369
51	12.3224
52	12.4036
53	12.4819
54	12.559
55	12.6355
56	12.7121
57	12.7897
58	12.8686
59	12.9489
60	13.0312
61	13.1149
62	13.1996
63	13.2846
64	13.3691
65	13.4521
66	13.5325
67	13.6089
68	13.6804
69	13.7458
70	13.8043
71	13.8556
72	13.899
73	13.9348
74	13.9628
75	13.983
76	13.995
77	13.9979
78	13.9921
79	13.9776
80	13.955
81	13.9248
82	13.888
83	13.8454
84	13.7978
85	13.7462
86	13.6911
87	13.6331
88	13.5725
89	13.5101
90	13.4453
91	13.3785
92	13.3095
93	13.2384
94	13.1652
95	13.0904
96	13.0133
97	12.9338
98	12.8518
99	12.7664
100	12.6781
101	12.5868
102	12.4921
103	12.394
104	12.2922
105	12.1864
106	12.0766
107	11.9625
108	11.844
109	11.7208
110	11.5923
111	11.4589
112	11.3204
113	11.1768
114	11.0285
115	10.8749
116	10.716
117	10.552
118	10.3829
119	10.2089
120	10.0307
121	9.8483
122	9.66212
123	9.4727
124	9.2807
125	9.08686
126	8.89204
127	8.69709
128	8.50278
129	8.30973
130	8.1183
131	7.92856
132	7.74018
133	7.5533
134	7.36767
135	7.18314
136	6.99958
137	6.81654
138	6.634
139	6.45153
140	6.26842
141	6.0838
142	5.89662
143	5.70584
144	5.5105
145	5.30978
146	5.10303
147	4.88979
148	4.66981
149	4.44318
150	4.20982
151	3.97006
152	3.72449
153	3.4739
154	3.21933
155	2.96216
156	2.70364
157	2.44521
158	2.18819
159	1.93359
160	1.68226
161	1.43452
162	1.19041
163	0.949785
164	0.7125
165	0.478507
166	0.24784
167	0.0205113
168	-0.203639
169	-0.425091
170	-0.644711
171	-0.863676
172	-1.08338
173	-1.30526
174	-1.53067
175	-1.76071
176	-1.99624
177	-2.23783
178	-2.48579
179	-2.74012
180	-3.00065
181	-3.26677
182	-3.53763
183	-3.81206
184	-4.08858
185	-4.36541
186	-4.64057
187	-4.91199
188	-5.17772
189	-5.43616
190	-5.68619
191	-5.92722
192	-6.15894
193	-6.38161
194	-6.59532
195	-6.8
196	-6.99552
197	-7.18149
198	-7.35822
199	-7.52626
200	-7.68673
201	-7.84119
202	-7.99152
203	-8.13967
204	-8.28749
205	-8.43658
206	-8.58824
207	-8.74344
208	-8.90284
209	-9.06702
210	-9.23566
211	-9.40854
212	-9.58514
213	-9.76466
214	-9.94605
215	-10.1284
216	-10.3098
217	-10.4888
218	-10.6637
219	-10.833
220	-10.996
221	-11.1524
222	-11.3019
223	-11.4443
224	-11.5798
225	-11.7081
226	-11.8289
227	-11.9422
228	-12.0478
229	-12.1461
230	-12.2372
231	-12.3227
232	-12.4039
233	-12.4822
234	-12.5593
235	-12.6357
236	-12.7124
237	-12.79
238	-12.8688
239	-12.9492
240	-13.0315
241	-13.1152
242	-13.1999
243	-13.2849
244	-13.3694
245	-13.4524
246	-13.5327
247	-13.6092
248	-13.6806
249	-13.746
250	-13.8046
251	-13.8559
252	-13.8992
253	-13.935
254	-13.9631
255	-13.9833
256	-13.9952
257	-13.9982
258	-13.9923
259	-13.9779
260	-13.9553
261	-13.9251
262	-13.8882
263	-13.8456
264	-13.7981
265	-13.7465
266	-13.6914
267	-13.6333
268	-13.5728
269	-13.5103
270	-13.4456
271	-13.3787
272	-13.3097
273	-13.2387
274	-13.1655
275	-13.0906
276	-13.0136
277	-12.9341
278	-12.852
279	-12.7666
280	-12.6784
281	-12.587
282	-12.4924
283	-12.3942
284	-12.2924
285	-12.1867
286	-12.0769
287	-11.9628
288	-11.8442
289	-11.7211
290	-11.5926
291	-11.4591
292	-11.3206
293	-11.177
294	-11.0287
295	-10.8751
296	-10.7163
297	-10.5522
298	-10.3831
299	-10.2091
300	-10.0309
301	-9.84851
302	-9.66233
303	-9.47291
304	-9.2809
305	-9.08706
306	-8.89224
307	-8.69729
308	-8.50298
309	-8.30993
310	-8.11849
311	-7.92875
312	-7.74038
313	-7.55349
314	-7.36786
315	-7.18333
316	-6.99977
317	-6.81672
318	-6.63419
319	-6.45171
320	-6.26861
321	-6.08398
322	-5.89679
323	-5.70602
324	-5.51068
325	-5.30995
326	-5.1032
327	-4.88996
328	-4.66998
329	-4.44335
330	-4.20999
331	-3.97023
332	-3.72466
333	-3.47407
334	-3.21949
335	-2.96232
336	-2.7038
337	-2.44537
338	-2.18835
339	-1.93375
340	-1.68241
341	-1.43468
342	-1.19057
343	-0.94994
344	-0.712654
345	-0.47866
346	-0.247992
347	-0.0206624
348	0.203489
349	0.424941
350	0.644562
351	0.863528
352	1.08323
353	1.30512
354	1.53053
355	1.76057
356	1.99609
357	2.23769
358	2.48564
359	2.73998
360	3.00051
Phase Current ia
0	-13.0313
1	-13.115
2	-13.1997
3	-13.2847
4	-13.3692
5	-13.4522
6	-13.5325
7	-13.609
8	-13.6804
9	-13.7458
10	-13.8044
11	-13.8557
12	-13.899
13	-13.9348
14	-13.9629
15	-13.9831
16	-13.995
17	-13.9979
18	-13.9921
19	-13.9777
20	-13.9551
21	-13.9249
22	-13.888
23	-13.8454
24	-13.7979
25	-13.7463
26	-13.6912
27	-13.6331
28	-13.5725
29	-13.5101
30	-13.4454
31	-13.3785
32	-13.3095
33	-13.2385
34	-13.1653
35	-13.0904
36	-13.0134
37	-12.9339
38	-12.8518
39	-12.7664
40	-12.6782
41	-12.5868
42	-12.4922
43	-12.394
44	-12.2922
45	-12.1865
46	-12.0767
47	-11.9626
48	-11.844
49	-11.7209
50	-11.5924
51	-11.4589
52	-11.3204
53	-11.1768
54	-11.0285
55	-10.8749
56	-10.7161
57	-10.552
58	-10.3829
59	-10.2089
60	-10.0307
61	-9.84831
62	-9.66214
63	-9.47272
64	-9.28071
65	-9.08687
66	-8.89205
67	-8.6971
68	-8.50279
69	-8.30974
70	-8.1183
71	-7.92857
72	-7.74019
73	-7.5533
74	-7.36768
75	-7.18314
76	-6.99958
77	-6.81654
78	-6.63401
79	-6.45153
80	-6.26843
81	-6.0838
82	-5.89662
83	-5.70584
84	-5.5105
85	-5.30978
86	-5.10303
87	-4.88979
88	-4.66981
89	-4.44318
90	-4.20982
91	-3.97006
92	-3.72449
93	-3.4739
94	-3.21932
95	-2.96215
96	-2.70364
97	-2.4452
98	-2.18819
99	-1.93359
100	-1.68225
101	-1.43452
102	-1.19041
103	-0.94978
104	-0.712495
105	-0.478502
106	-0.247834
107	-0.0205061
108	0.203644
109	0.425096
110	0.644716
111	0.863681
112	1.08339
113	1.30527
114	1.53068
115	1.76072
116	1.99624
117	2.23784
118	2.48579
119	2.74012
120	3.00065
121	3.26678
122	3.53764
123	3.81207
124	4.08859
125	4.36542
126	4.64058
127	4.91199
128	5.17773
129	5.43617
130	5.6862
131	5.92723
132	6.15894
133	6.38162
134	6.59532
135	6.80001
136	6.99553
137	7.1815
138	7.35822
139	7.52627
140	7.68673
141	7.84119
142	7.99152
143	8.13968
144	8.2875
145	8.43659
146	8.58825
147	8.74345
148	8.90285
149	9.06702
150	9.23567
151	9.40855
152	9.58514
153	9.76467
154	9.94605
155	10.1284
156	10.3098
157	10.4888
158	10.6637
159	10.833
160	10.996
161	11.1524
162	11.3019
163	11.4444
164	11.5798
165	11.7081
166	11.8289
167	11.9422
168	12.0478
169	12.1461
170	12.2372
171	12.3227
172	12.4039
173	12.4822
174	12.5593
175	12.6357
176	12.7124
177	12.79
178	12.8689
179	12.9492
180	13.0315
181	13.1152
182	13.1999
183	13.2849
184	13.3694
185	13.4524
186	13.5327
187	13.6092
188	13.6806
189	13.746
190	13.8046
191	13.8559
192	13.8993
193	13.935
194	13.9631
195	13.9833
196	13.9952
197	13.9982
198	13.9923
199	13.9779
200	13.9553
201	13.9251
202	13.8883
203	13.8456
204	13.7981
205	13.7465
206	13.6914
207	13.6334
208	13.5728
209	13.5103
210	13.4456
211	13.3787
212	13.3097
213	13.2387
214	13.1655
215	13.0907
216	13.0136
217	12.9341
218	12.852
219	12.7667
220	12.6784
221	12.587
222	12.4924
223	12.3942
224	12.2924
225	12.1867
226	12.0769
227	11.9628
228	11.8443
229	11.7211
230	11.5926
231	11.4592
232	11.3207
233	11.1771
234	11.0287
235	10.8751
236	10.7163
237	10.5523
238	10.3832
239	10.2091
240	10.0309
241	9.84854
242	9.66236
243	9.47294
244	9.28093
245	9.08709
246	8.89227
247	8.69731
248	8.50301
249	8.30996
250	8.11852
251	7.92878
252	7.7404
253	7.55352
254	7.36789
255	7.18336
256	6.99979
257	6.81675
258	6.63422
259	6.45174
260	6.26863
261	6.084
262	5.89682
263	5.70605
264	5.51071
265	5.30998
266	5.10323
267	4.88999
268	4.67001
269	4.44338
270	4.21002
271	3.97026
272	3.72469
273	3.4741
274	3.21952
275	2.96235
276	2.70383
277	2.4454
278	2.18838
279	1.93378
280	1.68244
281	1.43471
282	1.1906
283	0.949968
284	0.712682
285	0.478688
286	0.248019
287	0.0206899
288	-0.203461
289	-0.424914
290	-0.644535
291	-0.863501
292	-1.08321
293	-1.30509
294	-1.5305
295	-1.76054
296	-1.99607
297	-2.23766
298	-2.48562
299	-2.73995
300	-3.00048
301	-3.2666
302	-3.53747
303	-3.8119
304	-4.08842
305	-4.36525
306	-4.64041
307	-4.91183
308	-5.17756
309	-5.436
310	-5.68603
311	-5.92706
312	-6.15878
313	-6.38146
314	-6.59516
315	-6.79985
316	-6.99537
317	-7.18134
318	-7.35806
319	-7.52611
320	-7.68657
321	-7.84104
322	-7.99137
323	-8.13952
324	-8.28734
325	-8.43643
326	-8.58809
327	-8.7433
328	-8.90269
329	-9.06687
330	-9.23551
331	-9.40839
332	-9.58499
333	-9.76451
334	-9.9459
335	-10.1282
336	-10.3097
337	-10.4886
338	-10.6636
339	-10.8328
340	-10.9959
341	-11.1523
342	-11.3017
343	-11.4442
344	-11.5797
345	-11.7079
346	-11.8288
347	-11.942
348	-12.0476
349	-12.1459
350	-12.2371
351	-12.3226
352	-12.4038
353	-12.4821
354	-12.5591
355	-12.6356
356	-12.7123
357	-12.7899
358	-12.8687
359	-12.949
360	-13.0313
Phase Current ib
0	10.0308
1	9.84856
2	9.66238
3	9.47296
4	9.28094
5	9.08711
6	8.89228
7	8.69733
8	8.50302
9	8.30997
10	8.11853
11	7.92879
12	7.74042
13	7.55353
14	7.3679
15	7.18336
16	6.9998
17	6.81676
18	6.63422
19	6.45174
20	6.26864
21	6.08401
22	5.89683
23	5.70605
24	5.51071
25	5.30999
26	5.10323
27	4.88999
28	4.67001
29	4.44338
30	4.21002
31	3.97026
32	3.72469
33	3.47409
34	3.21952
35	2.96235
36	2.70383
37	2.44539
38	2.18838
39	1.93377
40	1.68244
41	1.4347
42	1.19059
43	0.949963
44	0.712677
45	0.478683
46	0.248014
47	0.0206849
48	-0.203467
49	-0.424919
50	-0.644541
51	-0.863507
52	-1.08321
53	-1.30509
54	-1.53051
55	-1.76055
56	-1.99607
57	-2.23767
58	-2.48562
59	-2.73995
60	-3.00049
61	-3.26661
62	-3.53747
63	-3.81191
64	-4.08843
65	-4.36526
66	-4.64041
67	-4.91183
68	-5.17757
69	-5.43601
70	-5.68604
71	-5.92707
72	-6.15879
73	-6.38146
74	-6.59516
75	-6.79985
76	-6.99538
77	-7.18135
78	-7.35807
79	-7.52611
80	-7.68658
81	-7.84104
82	-7.99137
83	-8.13953
84	-8.28735
85	-8.43644
86	-8.5881
87	-8.7433
88	-8.9027
89	-9.06688
90	-9.23552
91	-9.4084
92	-9.585
93	-9.76452
94	-9.94591
95	-10.1282
96	-10.3097
97	-10.4886
98	-10.6636
99	-10.8328
100	-10.9959
101	-11.1523
102	-11.3017
103	-11.4442
104	-11.5797
105	-11.7079
106	-11.8288
107	-11.942
108	-12.0477
109	-12.1459
110	-12.2371
111	-12.3226
112	-12.4038
113	-12.4821
114	-12.5592
115	-12.6356
116	-12.7123
117	-12.7899
118	-12.8687
119	-12.949
120	-13.0314
121	-13.1151
122	-13.1998
123	-13.2848
124	-13.3693
125	-13.4523
126	-13.5326
127	-13.6091
128	-13.6805
129	-13.7459
130	-13.8045
131	-13.8558
132	-13.8991
133	-13.9349
134	-13.963
135	-13.9831
136	-13.9951
137	-13.998
138	-13.9922
139	-13.9778
140	-13.9552
141	-13.925
142	-13.8881
143	-13.8455
144	-13.798
145	-13.7464
146	-13.6913
147	-13.6332
148	-13.5727
149	-13.5102
150	-13.4455
151	-13.3786
152	-13.3096
153	-13.2386
154	-13.1654
155	-13.0905
156	-13.0135
157	-12.934
158	-12.8519
159	-12.7666
160	-12.6783
161	-12.5869
162	-12.4923
163	-12.3941
164	-12.2923
165	-12.1866
166	-12.0768
167	-11.9627
168	-11.8442
169	-11.721
170	-11.5925
171	-11.459
172	-11.3206
173	-11.177
174	-11.0286
175	-10.875
176	-10.7162
177	-10.5522
178	-10.3831
179	-10.2091
180	-10.0308
181	-9.84844
182	-9.66226
183	-9.47284
184	-9.28083
185	-9.087
186	-8.89218
187	-8.69722
188	-8.50292
189	-8.30987
190	-8.11843
191	-7.92869
192	-7.74032
193	-7.55343
194	-7.36781
195	-7.18327
196	-6.99971
197	-6.81667
198	-6.63413
199	-6.45166
200	-6.26855
201	-6.08392
202	-5.89674
203	-5.70597
204	-5.51063
205	-5.30991
206	-5.10315
207	-4.88991
208	-4.66993
209	-4.44331
210	-4.20994
211	-3.97018
212	-3.72461
213	-3.47402
214	-3.21945
215	-2.96228
216	-2.70376
217	-2.44532
218	-2.18831
219	-1.93371
220	-1.68237
221	-1.43464
222	-1.19053
223	-0.9499
224	-0.712614
225	-0.478621
226	-0.247952
227	-0.0206235
228	0.203527
229	0.42498
230	0.6446
231	0.863566
232	1.08327
233	1.30515
234	1.53056
235	1.7606
236	1.99613
237	2.23772
238	2.48568
239	2.74001
240	3.00054
241	3.26667
242	3.53753
243	3.81196
244	4.08848
245	4.36531
246	4.64047
247	4.91189
248	5.17762
249	5.43606
250	5.68609
251	5.92712
252	6.15884
253	6.38151
254	6.59522
255	6.7999
256	6.99543
257	7.1814
258	7.35812
259	7.52616
260	7.68663
261	7.84109
262	7.99142
263	8.13958
264	8.2874
265	8.43649
266	8.58815
267	8.74335
268	8.90275
269	9.06692
270	9.23557
271	9.40845
272	9.58504
273	9.76457
274	9.94596
275	10.1283
276	10.3097
277	10.4887
278	10.6636
279	10.8329
280	10.9959
281	11.1523
282	11.3018
283	11.4443
284	11.5797
285	11.708
286	11.8288
287	11.9421
288	12.0477
289	12.146
290	12.2371
291	12.3226
292	12.4038
293	12.4821
294	12.5592
295	12.6356
296	12.7123
297	12.7899
298	12.8688
299	12.9491
300	13.0314
301	13.1151
302	13.1998
303	13.2848
304	13.3693
305	13.4523
306	13.5326
307	13.6091
308	13.6805
309	13.7459
310	13.8045
311	13.8558
312	13.8992
313	13.9349
314	13.963
315	13.9832
316	13.9951
317	13.9981
318	13.9922
319	13.9778
320	13.9552
321	13.925
322	13.8882
323	13.8455
324	13.798
325	13.7464
326	13.6913
327	13.6333
328	13.5727
329	13.5102
330	13.4455
331	13.3786
332	13.3096
333	13.2386
334	13.1654
335	13.0906
336	13.0135
337	12.934
338	12.8519
339	12.7666
340	12.6783
341	12.5869
342	12.4923
343	12.3941
344	12.2923
345	12.1866
346	12.0768
347	11.9627
348	11.8442
349	11.721
350	11.5925
351	11.459
352	11.3206
353	11.177
354	11.0286
355	10.875
356	10.7162
357	10.5522
358	10.3831
359	10.209
360	10.0308
Phase Current ic
