Winding Currents under Load 
Air-Gap Position (elec. degrees)
Current (A)
0	-41.34
1	-40.9414
2	-40.5374
3	-40.1282
4	-39.714
5	-39.2949
6	-38.8706
7	-38.4402
8	-38.0026
9	-37.5561
10	-37.0988
11	-36.6288
12	-36.1444
13	-35.6445
14	-35.1278
15	-34.5936
16	-34.0418
17	-33.4721
18	-32.8848
19	-32.2804
20	-31.6598
21	-31.024
22	-30.3745
23	-29.7128
24	-29.0406
25	-28.3598
26	-27.6718
27	-26.9779
28	-26.2791
29	-25.5759
30	-24.8686
31	-24.1573
32	-23.4424
33	-22.7242
34	-22.0031
35	-21.2793
36	-20.5529
37	-19.8236
38	-19.0906
39	-18.353
40	-17.6096
41	-16.8593
42	-16.1011
43	-15.3342
44	-14.558
45	-13.7723
46	-12.977
47	-12.1723
48	-11.3585
49	-10.5362
50	-9.70622
51	-8.86951
52	-8.02721
53	-7.18064
54	-6.3312
55	-5.48029
56	-4.62922
57	-3.77909
58	-2.93075
59	-2.0848
60	-1.24167
61	-0.401742
62	0.434595
63	1.26689
64	2.09467
65	2.91753
66	3.73524
67	4.54784
68	5.35561
69	6.15905
70	6.95877
71	7.7554
72	8.54949
73	9.34147
74	10.1316
75	10.9202
76	11.7071
77	12.4924
78	13.2759
79	14.0575
80	14.8368
81	15.6135
82	16.3874
83	17.1581
84	17.9251
85	18.688
86	19.4466
87	20.2002
88	20.9485
89	21.691
90	22.4273
91	23.1569
92	23.8795
93	24.5945
94	25.3015
95	26.0001
96	26.6899
97	27.3705
98	28.0415
99	28.7025
100	29.3532
101	29.9932
102	30.6223
103	31.2402
104	31.8467
105	32.4415
106	33.0247
107	33.5961
108	34.1557
109	34.7039
110	35.2407
111	35.7666
112	36.2821
113	36.7878
114	37.2845
115	37.7727
116	38.253
117	38.7258
118	39.1912
119	39.6488
120	40.0984
121	40.5395
122	40.9718
123	41.3949
124	41.8085
125	42.2122
126	42.6056
127	42.9879
128	43.3581
129	43.715
130	44.0574
131	44.384
132	44.6938
133	44.9858
134	45.2592
135	45.5137
136	45.7487
137	45.9643
138	46.1605
139	46.3377
140	46.4964
141	46.6374
142	46.7618
143	46.8707
144	46.9656
145	47.0477
146	47.1182
147	47.1779
148	47.2274
149	47.2667
150	47.2957
151	47.3141
152	47.3218
153	47.3186
154	47.3044
155	47.2793
156	47.2427
157	47.194
158	47.132
159	47.0554
160	46.9627
161	46.8525
162	46.7233
163	46.5743
164	46.4046
165	46.2137
166	46.0016
167	45.7682
168	45.5141
169	45.24
170	44.9468
171	44.636
172	44.3092
173	43.9683
174	43.6155
175	43.2529
176	42.8821
177	42.5048
178	42.1218
179	41.7335
180	41.34
181	40.9412
182	40.5371
183	40.1279
184	39.7137
185	39.2946
186	38.8703
187	38.44
188	38.0024
189	37.5558
190	37.0985
191	36.6285
192	36.1442
193	35.6442
194	35.1275
195	34.5934
196	34.0415
197	33.4718
198	32.8845
199	32.2801
200	31.6595
201	31.0238
202	30.3743
203	29.7126
204	29.0404
205	28.3595
206	27.6715
207	26.9777
208	26.2789
209	25.5757
210	24.8683
211	24.1571
212	23.4422
213	22.724
214	22.0029
215	21.2791
216	20.5527
217	19.8234
218	19.0904
219	18.3528
220	17.6094
221	16.8591
222	16.1009
223	15.334
224	14.5578
225	13.7721
226	12.9768
227	12.1721
228	11.3583
229	10.536
230	9.70603
231	8.86932
232	8.02702
233	7.18045
234	6.33101
235	5.48011
236	4.62904
237	3.77891
238	2.93057
239	2.08462
240	1.24149
241	0.401568
242	-0.434768
243	-1.26706
244	-2.09484
245	-2.9177
246	-3.73541
247	-4.54801
248	-5.35577
249	-6.15921
250	-6.95894
251	-7.75556
252	-8.54965
253	-9.34162
254	-10.1318
255	-10.9203
256	-11.7073
257	-12.4926
258	-13.2761
259	-14.0576
260	-14.8369
261	-15.6137
262	-16.3876
263	-17.1582
264	-17.9252
265	-18.6882
266	-19.4467
267	-20.2003
268	-20.9486
269	-21.6911
270	-22.4274
271	-23.1571
272	-23.8796
273	-24.5946
274	-25.3016
275	-26.0002
276	-26.6901
277	-27.3706
278	-28.0416
279	-28.7026
280	-29.3533
281	-29.9934
282	-30.6225
283	-31.2403
284	-31.8468
285	-32.4416
286	-33.0248
287	-33.5962
288	-34.1559
289	-34.704
290	-35.2408
291	-35.7667
292	-36.2822
293	-36.7879
294	-37.2846
295	-37.7728
296	-38.2531
297	-38.726
298	-39.1913
299	-39.6489
300	-40.0985
301	-40.5396
302	-40.9719
303	-41.395
304	-41.8086
305	-42.2123
306	-42.6057
307	-42.988
308	-43.3582
309	-43.7151
310	-44.0575
311	-44.3841
312	-44.6939
313	-44.9859
314	-45.2593
315	-45.5138
316	-45.7488
317	-45.9644
318	-46.1606
319	-46.3378
320	-46.4965
321	-46.6375
322	-46.7619
323	-46.8708
324	-46.9657
325	-47.0478
326	-47.1183
327	-47.178
328	-47.2275
329	-47.2668
330	-47.2958
331	-47.3142
332	-47.3218
333	-47.3186
334	-47.3045
335	-47.2794
336	-47.2428
337	-47.194
338	-47.1321
339	-47.0555
340	-46.9628
341	-46.8525
342	-46.7234
343	-46.5744
344	-46.4047
345	-46.2138
346	-46.0017
347	-45.7683
348	-45.5142
349	-45.24
350	-44.9469
351	-44.636
352	-44.3092
353	-43.9684
354	-43.6156
355	-43.2529
356	-42.8822
357	-42.5049
358	-42.1219
359	-41.7335
360	-41.34
Phase Current ia
0	1.24153
1	0.401627
2	-0.434709
3	-1.267
4	-2.09478
5	-2.91764
6	-3.73535
7	-4.54795
8	-5.35572
9	-6.15916
10	-6.95888
11	-7.75551
12	-8.54959
13	-9.34157
14	-10.1317
15	-10.9203
16	-11.7072
17	-12.4925
18	-13.276
19	-14.0576
20	-14.8369
21	-15.6136
22	-16.3875
23	-17.1582
24	-17.9252
25	-18.6881
26	-19.4466
27	-20.2003
28	-20.9486
29	-21.6911
30	-22.4274
31	-23.157
32	-23.8796
33	-24.5945
34	-25.3016
35	-26.0002
36	-26.69
37	-27.3706
38	-28.0416
39	-28.7026
40	-29.3533
41	-29.9933
42	-30.6224
43	-31.2403
44	-31.8467
45	-32.4416
46	-33.0247
47	-33.5961
48	-34.1558
49	-34.7039
50	-35.2408
51	-35.7667
52	-36.2822
53	-36.7879
54	-37.2845
55	-37.7728
56	-38.2531
57	-38.7259
58	-39.1912
59	-39.6489
60	-40.0985
61	-40.5396
62	-40.9719
63	-41.395
64	-41.8086
65	-42.2123
66	-42.6057
67	-42.988
68	-43.3582
69	-43.7151
70	-44.0574
71	-44.3841
72	-44.6938
73	-44.9858
74	-45.2593
75	-45.5137
76	-45.7488
77	-45.9644
78	-46.1606
79	-46.3378
80	-46.4965
81	-46.6375
82	-46.7618
83	-46.8708
84	-46.9656
85	-47.0477
86	-47.1182
87	-47.178
88	-47.2275
89	-47.2668
90	-47.2958
91	-47.3142
92	-47.3218
93	-47.3186
94	-47.3045
95	-47.2793
96	-47.2427
97	-47.194
98	-47.132
99	-47.0555
100	-46.9628
101	-46.8525
102	-46.7234
103	-46.5743
104	-46.4046
105	-46.2138
106	-46.0016
107	-45.7683
108	-45.5142
109	-45.24
110	-44.9468
111	-44.636
112	-44.3092
113	-43.9684
114	-43.6156
115	-43.2529
116	-42.8822
117	-42.5049
118	-42.1218
119	-41.7335
120	-41.34
121	-40.9412
122	-40.5371
123	-40.1279
124	-39.7138
125	-39.2946
126	-38.8703
127	-38.44
128	-38.0024
129	-37.5559
130	-37.0985
131	-36.6285
132	-36.1442
133	-35.6442
134	-35.1275
135	-34.5934
136	-34.0416
137	-33.4718
138	-32.8845
139	-32.2802
140	-31.6596
141	-31.0238
142	-30.3743
143	-29.7126
144	-29.0404
145	-28.3596
146	-27.6716
147	-26.9777
148	-26.2789
149	-25.5757
150	-24.8684
151	-24.1571
152	-23.4422
153	-22.724
154	-22.0029
155	-21.2791
156	-20.5527
157	-19.8234
158	-19.0904
159	-18.3528
160	-17.6095
161	-16.8592
162	-16.101
163	-15.334
164	-14.5579
165	-13.7722
166	-12.9769
167	-12.1721
168	-11.3583
169	-10.536
170	-9.70606
171	-8.86934
172	-8.02705
173	-7.18048
174	-6.33104
175	-5.48013
176	-4.62906
177	-3.77893
178	-2.93059
179	-2.08464
180	-1.24152
181	-0.401591
182	0.434745
183	1.26704
184	2.09481
185	2.91767
186	3.73539
187	4.54799
188	5.35575
189	6.15919
190	6.95891
191	7.75554
192	8.54963
193	9.3416
194	10.1318
195	10.9203
196	11.7072
197	12.4925
198	13.2761
199	14.0576
200	14.8369
201	15.6137
202	16.3876
203	17.1582
204	17.9252
205	18.6882
206	19.4467
207	20.2003
208	20.9486
209	21.6911
210	22.4274
211	23.157
212	23.8796
213	24.5946
214	25.3016
215	26.0002
216	26.69
217	27.3706
218	28.0416
219	28.7026
220	29.3533
221	29.9933
222	30.6224
223	31.2403
224	31.8468
225	32.4416
226	33.0248
227	33.5962
228	34.1559
229	34.704
230	35.2408
231	35.7667
232	36.2822
233	36.7879
234	37.2846
235	37.7728
236	38.2531
237	38.7259
238	39.1913
239	39.6489
240	40.0985
241	40.5396
242	40.9719
243	41.395
244	41.8086
245	42.2123
246	42.6057
247	42.988
248	43.3582
249	43.7151
250	44.0575
251	44.3841
252	44.6939
253	44.9858
254	45.2593
255	45.5137
256	45.7488
257	45.9644
258	46.1606
259	46.3378
260	46.4965
261	46.6375
262	46.7619
263	46.8708
264	46.9657
265	47.0477
266	47.1182
267	47.178
268	47.2275
269	47.2668
270	47.2958
271	47.3142
272	47.3218
273	47.3186
274	47.3045
275	47.2793
276	47.2428
277	47.194
278	47.1321
279	47.0555
280	46.9628
281	46.8525
282	46.7234
283	46.5744
284	46.4047
285	46.2138
286	46.0017
287	45.7683
288	45.5142
289	45.24
290	44.9468
291	44.636
292	44.3092
293	43.9684
294	43.6156
295	43.2529
296	42.8822
297	42.5049
298	42.1219
299	41.7335
300	41.34
301	40.9412
302	40.5372
303	40.1279
304	39.7138
305	39.2947
306	38.8703
307	38.44
308	38.0024
309	37.5559
310	37.0985
311	36.6285
312	36.1442
313	35.6442
314	35.1276
315	34.5934
316	34.0416
317	33.4719
318	32.8846
319	32.2802
320	31.6596
321	31.0238
322	30.3743
323	29.7126
324	29.0405
325	28.3596
326	27.6716
327	26.9777
328	26.2789
329	25.5757
330	24.8684
331	24.1571
332	23.4423
333	22.724
334	22.0029
335	21.2791
336	20.5527
337	19.8234
338	19.0904
339	18.3529
340	17.6095
341	16.8592
342	16.101
343	15.334
344	14.5579
345	13.7722
346	12.9769
347	12.1721
348	11.3583
349	10.5361
350	9.70607
351	8.86935
352	8.02706
353	7.18049
354	6.33105
355	5.48014
356	4.62907
357	3.77894
358	2.9306
359	2.08465
360	1.24153
Phase Current ib
0	40.0985
1	40.5398
2	40.9721
3	41.3952
4	41.8088
5	42.2125
6	42.6059
7	42.9882
8	43.3584
9	43.7153
10	44.0576
11	44.3843
12	44.694
13	44.986
14	45.2595
15	45.5139
16	45.749
17	45.9646
18	46.1608
19	46.338
20	46.4967
21	46.6377
22	46.762
23	46.871
24	46.9658
25	47.0479
26	47.1184
27	47.1782
28	47.2276
29	47.267
30	47.2959
31	47.3143
32	47.322
33	47.3188
34	47.3047
35	47.2795
36	47.2429
37	47.1942
38	47.1322
39	47.0556
40	46.9629
41	46.8527
42	46.7235
43	46.5745
44	46.4048
45	46.2139
46	46.0018
47	45.7684
48	45.5143
49	45.2402
50	44.947
51	44.6362
52	44.3094
53	43.9685
54	43.6157
55	43.253
56	42.8823
57	42.505
58	42.122
59	41.7337
60	41.3401
61	40.9413
62	40.5373
63	40.1281
64	39.7139
65	39.2948
66	38.8705
67	38.4401
68	38.0025
69	37.556
70	37.0987
71	36.6287
72	36.1443
73	35.6444
74	35.1277
75	34.5936
76	34.0417
77	33.472
78	32.8847
79	32.2803
80	31.6597
81	31.0239
82	30.3744
83	29.7127
84	29.0406
85	28.3597
86	27.6717
87	26.9778
88	26.279
89	25.5758
90	24.8685
91	24.1572
92	23.4423
93	22.7241
94	22.003
95	21.2792
96	20.5528
97	19.8235
98	19.0905
99	18.3529
100	17.6096
101	16.8593
102	16.101
103	15.3341
104	14.558
105	13.7723
106	12.977
107	12.1722
108	11.3584
109	10.5361
110	9.70615
111	8.86943
112	8.02713
113	7.18057
114	6.33113
115	5.48022
116	4.62915
117	3.77902
118	2.93068
119	2.08473
120	1.2416
121	0.401673
122	-0.434663
123	-1.26696
124	-2.09473
125	-2.91759
126	-3.73531
127	-4.54791
128	-5.35568
129	-6.15911
130	-6.95884
131	-7.75547
132	-8.54955
133	-9.34153
134	-10.1317
135	-10.9202
136	-11.7072
137	-12.4925
138	-13.276
139	-14.0575
140	-14.8368
141	-15.6136
142	-16.3875
143	-17.1581
144	-17.9251
145	-18.6881
146	-19.4466
147	-20.2002
148	-20.9485
149	-21.691
150	-22.4273
151	-23.157
152	-23.8795
153	-24.5945
154	-25.3015
155	-26.0002
156	-26.69
157	-27.3706
158	-28.0416
159	-28.7026
160	-29.3533
161	-29.9933
162	-30.6224
163	-31.2403
164	-31.8467
165	-32.4416
166	-33.0247
167	-33.5961
168	-34.1558
169	-34.7039
170	-35.2407
171	-35.7666
172	-36.2821
173	-36.7879
174	-37.2845
175	-37.7727
176	-38.2531
177	-38.7259
178	-39.1912
179	-39.6488
180	-40.0984
181	-40.5396
182	-40.9718
183	-41.3949
184	-41.8085
185	-42.2123
186	-42.6057
187	-42.988
188	-43.3581
189	-43.715
190	-44.0574
191	-44.384
192	-44.6938
193	-44.9858
194	-45.2593
195	-45.5137
196	-45.7488
197	-45.9643
198	-46.1606
199	-46.3377
200	-46.4964
201	-46.6375
202	-46.7618
203	-46.8708
204	-46.9656
205	-47.0477
206	-47.1182
207	-47.178
208	-47.2274
209	-47.2668
210	-47.2957
211	-47.3141
212	-47.3218
213	-47.3186
214	-47.3045
215	-47.2793
216	-47.2427
217	-47.194
218	-47.132
219	-47.0554
220	-46.9627
221	-46.8525
222	-46.7234
223	-46.5743
224	-46.4046
225	-46.2138
226	-46.0016
227	-45.7683
228	-45.5142
229	-45.24
230	-44.9468
231	-44.636
232	-44.3092
233	-43.9684
234	-43.6156
235	-43.2529
236	-42.8822
237	-42.5048
238	-42.1218
239	-41.7335
240	-41.34
241	-40.9412
242	-40.5371
243	-40.1279
244	-39.7137
245	-39.2946
246	-38.8703
247	-38.44
248	-38.0024
249	-37.5559
250	-37.0985
251	-36.6285
252	-36.1442
253	-35.6442
254	-35.1275
255	-34.5934
256	-34.0415
257	-33.4718
258	-32.8845
259	-32.2802
260	-31.6596
261	-31.0238
262	-30.3743
263	-29.7126
264	-29.0404
265	-28.3596
266	-27.6715
267	-26.9777
268	-26.2789
269	-25.5757
270	-24.8684
271	-24.1571
272	-23.4422
273	-22.724
274	-22.0029
275	-21.2791
276	-20.5527
277	-19.8234
278	-19.0904
279	-18.3528
280	-17.6095
281	-16.8592
282	-16.1009
283	-15.334
284	-14.5579
285	-13.7722
286	-12.9769
287	-12.1721
288	-11.3583
289	-10.536
290	-9.70605
291	-8.86933
292	-8.02704
293	-7.18047
294	-6.33103
295	-5.48012
296	-4.62905
297	-3.77893
298	-2.93059
299	-2.08464
300	-1.24151
301	-0.401584
302	0.434751
303	1.26704
304	2.09482
305	2.91768
306	3.7354
307	4.54799
308	5.35576
309	6.1592
310	6.95892
311	7.75555
312	8.54963
313	9.34161
314	10.1318
315	10.9203
316	11.7073
317	12.4925
318	13.2761
319	14.0576
320	14.8369
321	15.6137
322	16.3876
323	17.1582
324	17.9252
325	18.6882
326	19.4467
327	20.2003
328	20.9486
329	21.6911
330	22.4274
331	23.1571
332	23.8796
333	24.5946
334	25.3016
335	26.0002
336	26.69
337	27.3706
338	28.0416
339	28.7026
340	29.3533
341	29.9934
342	30.6224
343	31.2403
344	31.8468
345	32.4416
346	33.0248
347	33.5962
348	34.1559
349	34.704
350	35.2408
351	35.7667
352	36.2822
353	36.7879
354	37.2846
355	37.7728
356	38.2531
357	38.7259
358	39.1913
359	39.6489
360	40.0985
Phase Current ic
